Wavelength	Transmittance	hex_color	Manufacturer	Name	Filter Number
500	0.0	#838383	Omega	555DF38 Bandpass	W2953
501	0.0				
502	0.0				
503	0.0				
504	0.0				
505	0.0				
506	0.0				
507	0.0				
508	0.0				
509	0.0				
510	0.0				
511	0.0				
512	0.0				
513	0.0				
514	0.0				
515	0.0				
516	0.0				
517	0.0				
518	0.0				
519	0.0				
520	0.0				
521	1e-05				
522	3e-05				
523	6e-05				
524	0.00012				
525	0.00023				
526	0.00037				
527	0.00063				
528	0.00109				
529	0.00214				
530	0.00468				
531	0.01202				
532	0.03827				
533	0.14101				
534	0.39537999999999995				
535	0.62796				
536	0.64826				
537	0.6067199999999999				
538	0.62311				
539	0.67962				
540	0.74307				
541	0.7862699999999999				
542	0.8038200000000001				
543	0.80411				
544	0.80173				
545	0.7997299999999999				
546	0.8035				
547	0.81026				
548	0.81538				
549	0.82				
550	0.8221599999999999				
551	0.8249200000000001				
552	0.8278300000000001				
553	0.83116				
554	0.83492				
555	0.83693				
556	0.83757				
557	0.83634				
558	0.83131				
559	0.82586				
560	0.82012				
561	0.81761				
562	0.81864				
563	0.8223199999999999				
564	0.82782				
565	0.83288				
566	0.83434				
567	0.8282599999999999				
568	0.81097				
569	0.7836700000000001				
570	0.7437600000000001				
571	0.7206600000000001				
572	0.72773				
573	0.7417100000000001				
574	0.65213				
575	0.41514				
576	0.18469999999999998				
577	0.06834				
578	0.02595				
579	0.01093				
580	0.00502				
581	0.00246				
582	0.00126				
583	0.00068				
584	0.00037999999999999997				
585	0.00021999999999999998				
586	0.00012				
587	7.000000000000001e-05				
588	3e-05				
589	2e-05				
590	1e-05				
591	0.0				
592	0.0				
593	0.0				
594	0.0				
595	0.0				
596	0.0				
597	0.0				
598	0.0				
599	0.0				
600	0.0				
