Wavelength	Transmittance	hex_color	Manufacturer	Name	Filter Number
380	0.0	#838383	Chroma	Unnamed	ZT405/532/635rpc
381	0.00636				
382	0.01776				
383	0.04582				
384	0.0588				
385	0.03303				
386	0.01456				
387	0.025910000000000002				
388	0.0353				
389	0.02342				
390	0.02347				
391	0.05287				
392	0.06657				
393	0.044669999999999994				
394	0.027839999999999997				
395	0.03616				
396	0.07444				
397	0.09506				
398	0.09532				
399	0.10941000000000001				
400	0.07404				
401	0.0216				
402	0.00499				
403	0.00113				
404	0.00164				
405	0.00166				
406	0.0022400000000000002				
407	0.00515				
408	0.01496				
409	0.02475				
410	0.02643				
411	0.03929				
412	0.10181				
413	0.20742999999999998				
414	0.23524				
415	0.19780999999999999				
416	0.244				
417	0.39202				
418	0.512				
419	0.55383				
420	0.61497				
421	0.73665				
422	0.86117				
423	0.93361				
424	0.9628				
425	0.96926				
426	0.96585				
427	0.95289				
428	0.94364				
429	0.94482				
430	0.94892				
431	0.95651				
432	0.96149				
433	0.9654699999999999				
434	0.96794				
435	0.9718399999999999				
436	0.9706				
437	0.97322				
438	0.9730599999999999				
439	0.97217				
440	0.9670799999999999				
441	0.95946				
442	0.9547				
443	0.95441				
444	0.9575400000000001				
445	0.9632999999999999				
446	0.9668000000000001				
447	0.96842				
448	0.96665				
449	0.96732				
450	0.9736499999999999				
451	0.97811				
452	0.97872				
453	0.97404				
454	0.9702200000000001				
455	0.9731399999999999				
456	0.97578				
457	0.98075				
458	0.9799				
459	0.97351				
460	0.96963				
461	0.97178				
462	0.97543				
463	0.97573				
464	0.97303				
465	0.97075				
466	0.97229				
467	0.97564				
468	0.9782299999999999				
469	0.97592				
470	0.9700799999999999				
471	0.9653				
472	0.9656699999999999				
473	0.9703700000000001				
474	0.97419				
475	0.97476				
476	0.97322				
477	0.97162				
478	0.97089				
479	0.9718300000000001				
480	0.97276				
481	0.9739				
482	0.97518				
483	0.97398				
484	0.9738500000000001				
485	0.97224				
486	0.9697199999999999				
487	0.96813				
488	0.9675				
489	0.96761				
490	0.97018				
491	0.97315				
492	0.97482				
493	0.9747				
494	0.9729000000000001				
495	0.9716400000000001				
496	0.97199				
497	0.9735299999999999				
498	0.97532				
499	0.97564				
500	0.97418				
501	0.973				
502	0.9736400000000001				
503	0.9726600000000001				
504	0.9698				
505	0.96245				
506	0.95109				
507	0.9390900000000001				
508	0.92964				
509	0.9272400000000001				
510	0.92997				
511	0.93569				
512	0.9410299999999999				
513	0.94599				
514	0.95125				
515	0.95796				
516	0.9637600000000001				
517	0.96723				
518	0.96748				
519	0.96722				
520	0.96934				
521	0.95217				
522	0.86545				
523	0.66565				
524	0.44307				
525	0.26359				
526	0.15697				
527	0.09946999999999999				
528	0.06715				
529	0.04976				
530	0.04011				
531	0.03382				
532	0.030270000000000002				
533	0.02856				
534	0.02844				
535	0.029660000000000002				
536	0.03251				
537	0.03767				
538	0.04579				
539	0.05815000000000001				
540	0.07825				
541	0.11112				
542	0.15777				
543	0.22938				
544	0.31998				
545	0.41816000000000003				
546	0.50293				
547	0.58817				
548	0.68842				
549	0.80191				
550	0.8885200000000001				
551	0.9355899999999999				
552	0.95331				
553	0.96311				
554	0.9717100000000001				
555	0.97878				
556	0.97952				
557	0.97433				
558	0.96785				
559	0.9641299999999999				
560	0.96416				
561	0.96777				
562	0.9716800000000001				
563	0.97406				
564	0.9733499999999999				
565	0.96832				
566	0.96003				
567	0.95272				
568	0.94549				
569	0.9391200000000001				
570	0.93715				
571	0.93808				
572	0.9431				
573	0.94922				
574	0.9571				
575	0.9675400000000001				
576	0.97492				
577	0.97952				
578	0.98163				
579	0.9809300000000001				
580	0.9794499999999999				
581	0.97799				
582	0.97646				
583	0.97477				
584	0.97339				
585	0.97152				
586	0.97038				
587	0.9698300000000001				
588	0.96911				
589	0.9686400000000001				
590	0.96852				
591	0.96693				
592	0.96524				
593	0.9658100000000001				
594	0.96663				
595	0.96893				
596	0.96904				
597	0.97083				
598	0.96974				
599	0.9681000000000001				
600	0.9670099999999999				
601	0.97378				
602	0.97565				
603	0.97533				
604	0.9749800000000001				
605	0.97519				
606	0.9758100000000001				
607	0.97812				
608	0.9793600000000001				
609	0.97942				
610	0.9771299999999999				
611	0.9736				
612	0.97107				
613	0.97016				
614	0.97032				
615	0.97265				
616	0.9706				
617	0.95048				
618	0.89051				
619	0.78094				
620	0.62888				
621	0.47469				
622	0.34314				
623	0.24422				
624	0.17567				
625	0.12986				
626	0.09865				
627	0.07732				
628	0.06208				
629	0.05044				
630	0.04325999999999999				
631	0.038060000000000004				
632	0.0342				
633	0.03168				
634	0.03				
635	0.028990000000000002				
636	0.0288				
637	0.02919				
638	0.03025				
639	0.03181				
640	0.03426				
641	0.03751				
642	0.042				
643	0.04813				
644	0.05607				
645	0.06796				
646	0.08292999999999999				
647	0.10209				
648	0.12756				
649	0.16091999999999998				
650	0.20385				
651	0.2561				
652	0.31865				
653	0.38577				
654	0.44572				
655	0.49903				
656	0.54655				
657	0.59606				
658	0.65788				
659	0.7338				
660	0.8156300000000001				
661	0.889				
662	0.9357599999999999				
663	0.9570099999999999				
664	0.96402				
665	0.9652299999999999				
666	0.9686199999999999				
667	0.97214				
668	0.97752				
669	0.9832				
670	0.9849899999999999				
671	0.9841200000000001				
672	0.9828199999999999				
673	0.9786499999999999				
674	0.9767				
675	0.97297				
676	0.9709300000000001				
677	0.96986				
678	0.96819				
679	0.96595				
680	0.96422				
681	0.9617				
682	0.96027				
683	0.96014				
684	0.96016				
685	0.96122				
686	0.9623				
687	0.96439				
688	0.9672700000000001				
689	0.96994				
690	0.97444				
691	0.9787				
692	0.98055				
693	0.98247				
694	0.98237				
695	0.9813200000000001				
696	0.98053				
697	0.9769199999999999				
698	0.97272				
699	0.97064				
700	0.96845				
701	0.96652				
702	0.96899				
703	0.9702500000000001				
704	0.97221				
705	0.97666				
706	0.97867				
707	0.98137				
708	0.9820099999999999				
709	0.9798				
710	0.97697				
711	0.97566				
712	0.97352				
713	0.9701900000000001				
714	0.9673				
715	0.96371				
716	0.9615699999999999				
717	0.9602299999999999				
718	0.9607899999999999				
719	0.96307				
720	0.96691				
721	0.97031				
722	0.9725100000000001				
723	0.97501				
724	0.97967				
725	0.9819				
726	0.98257				
727	0.98268				
728	0.9816800000000001				
729	0.97967				
730	0.97732				
731	0.9766400000000001				
732	0.97384				
733	0.97151				
734	0.97113				
735	0.96947				
736	0.96902				
737	0.9686400000000001				
738	0.97065				
739	0.9707399999999999				
740	0.9718899999999999				
741	0.97392				
742	0.97575				
743	0.9783700000000001				
744	0.98005				
745	0.98047				
746	0.98111				
747	0.97926				
748	0.97622				
749	0.97468				
750	0.97453				
