Wavelength	Transmittance	hex_color	Manufacturer	Name	Filter Number
380	0.00449	#838383	Chroma	Unnamed	T505lpxr
381	0.00443				
382	0.005699999999999999				
383	0.006840000000000001				
384	0.00598				
385	0.0025900000000000003				
386	0.0016				
387	0.0013700000000000001				
388	0.0015				
389	0.0025				
390	0.0022400000000000002				
391	0.00099				
392	0.00151				
393	0.0014000000000000002				
394	0.00123				
395	0.00115				
396	0.00075				
397	0.0005899999999999999				
398	0.00116				
399	0.00053				
400	0.00037999999999999997				
401	0.0007599999999999999				
402	0.00084				
403	0.0005				
404	0.0007199999999999999				
405	0.0				
406	0.00066				
407	0.00092				
408	0.0007199999999999999				
409	0.00061				
410	0.0003				
411	0.00029				
412	0.00041				
413	0.00029				
414	0.00049				
415	0.00039				
416	0.0005600000000000001				
417	0.00065				
418	0.00028000000000000003				
419	0.00035999999999999997				
420	0.00064				
421	0.00039				
422	0.00035999999999999997				
423	0.00032				
424	0.00053				
425	0.00047				
426	0.0006				
427	0.0008500000000000001				
428	0.00052				
429	0.00048				
430	0.00058				
431	0.00049				
432	0.00048				
433	0.00043999999999999996				
434	0.00066				
435	0.00082				
436	0.00034				
437	0.00063				
438	0.00065				
439	0.00079				
440	0.00077				
441	0.00067				
442	0.0008500000000000001				
443	0.00115				
444	0.00169				
445	0.00229				
446	0.00201				
447	0.00155				
448	0.00111				
449	0.0010299999999999999				
450	0.00075				
451	0.00095				
452	0.0009299999999999999				
453	0.00108				
454	0.00148				
455	0.0023699999999999997				
456	0.00384				
457	0.00498				
458	0.0043				
459	0.0027900000000000004				
460	0.00191				
461	0.00156				
462	0.00146				
463	0.0017299999999999998				
464	0.0022500000000000003				
465	0.0041199999999999995				
466	0.00987				
467	0.01738				
468	0.015600000000000001				
469	0.0072				
470	0.0027900000000000004				
471	0.00148				
472	0.00105				
473	0.00074				
474	0.0008				
475	0.00066				
476	0.00062				
477	0.0007000000000000001				
478	0.00063				
479	0.0008				
480	0.0008100000000000001				
481	0.0009				
482	0.0011200000000000001				
483	0.00134				
484	0.00184				
485	0.00244				
486	0.0034799999999999996				
487	0.00511				
488	0.00724				
489	0.00942				
490	0.011659999999999998				
491	0.01363				
492	0.01512				
493	0.016730000000000002				
494	0.01894				
495	0.02214				
496	0.026600000000000002				
497	0.03403				
498	0.0463				
499	0.06418				
500	0.09682				
501	0.14266				
502	0.20884				
503	0.29279				
504	0.37868				
505	0.46482999999999997				
506	0.55559				
507	0.7017				
508	0.85423				
509	0.95462				
510	0.97887				
511	0.9806100000000001				
512	0.98208				
513	0.98431				
514	0.9833				
515	0.98131				
516	0.98004				
517	0.97929				
518	0.98015				
519	0.98024				
520	0.98165				
521	0.98182				
522	0.98158				
523	0.9814499999999999				
524	0.9816400000000001				
525	0.98107				
526	0.9817				
527	0.9830200000000001				
528	0.98402				
529	0.98469				
530	0.98565				
531	0.9870399999999999				
532	0.9869100000000001				
533	0.9882299999999999				
534	0.9879399999999999				
535	0.98783				
536	0.98699				
537	0.98576				
538	0.9848399999999999				
539	0.9826900000000001				
540	0.9810599999999999				
541	0.98005				
542	0.97953				
543	0.97895				
544	0.9790300000000001				
545	0.97898				
546	0.9787600000000001				
547	0.9789				
548	0.9791599999999999				
549	0.97961				
550	0.9802500000000001				
551	0.9808100000000001				
552	0.98153				
553	0.9825400000000001				
554	0.98299				
555	0.98299				
556	0.98366				
557	0.98422				
558	0.98339				
559	0.98373				
560	0.98332				
561	0.9826999999999999				
562	0.9829300000000001				
563	0.98245				
564	0.9820399999999999				
565	0.98331				
566	0.98346				
567	0.9848				
568	0.98536				
569	0.9859300000000001				
570	0.98631				
571	0.9870699999999999				
572	0.9868899999999999				
573	0.9870699999999999				
574	0.9871099999999999				
575	0.9869199999999999				
576	0.98714				
577	0.98761				
578	0.9869				
579	0.98809				
580	0.98655				
581	0.9870399999999999				
582	0.9873099999999999				
583	0.98457				
584	0.9854600000000001				
585	0.98505				
586	0.98453				
587	0.9852299999999999				
588	0.98273				
589	0.9841200000000001				
590	0.9843899999999999				
591	0.9834				
592	0.9825499999999999				
593	0.98276				
594	0.98462				
595	0.98138				
596	0.98371				
597	0.98324				
598	0.98208				
599	0.98265				
600	0.9831				
601	0.9809300000000001				
602	0.96559				
603	0.96473				
604	0.97288				
605	0.9829600000000001				
606	0.98752				
607	0.98669				
608	0.98334				
609	0.9804600000000001				
610	0.97962				
611	0.98163				
612	0.9856				
613	0.9894799999999999				
614	0.99141				
615	0.99173				
616	0.991				
617	0.9886400000000001				
618	0.98705				
619	0.9851399999999999				
620	0.9840399999999999				
621	0.98442				
622	0.98592				
623	0.9878100000000001				
624	0.98923				
625	0.99029				
626	0.99114				
627	0.99222				
628	0.99253				
629	0.99164				
630	0.99041				
631	0.9892799999999999				
632	0.98801				
633	0.98789				
634	0.9873099999999999				
635	0.98554				
636	0.98394				
637	0.9826699999999999				
638	0.98332				
639	0.98322				
640	0.98319				
641	0.98419				
642	0.98456				
643	0.98512				
644	0.9849800000000001				
645	0.98572				
646	0.9862000000000001				
647	0.98611				
648	0.98603				
649	0.9863299999999999				
650	0.98637				
651	0.98624				
652	0.98627				
653	0.9847				
654	0.9847				
655	0.98527				
656	0.9855800000000001				
657	0.98554				
658	0.98516				
659	0.9856199999999999				
660	0.9860800000000001				
661	0.98631				
662	0.98669				
663	0.9870099999999999				
664	0.98681				
665	0.98665				
666	0.986				
667	0.98649				
668	0.98655				
669	0.98655				
670	0.98702				
671	0.9868600000000001				
672	0.987				
673	0.98712				
674	0.9872799999999999				
675	0.9875499999999999				
676	0.9878199999999999				
677	0.98784				
678	0.98787				
679	0.9879000000000001				
680	0.9876600000000001				
681	0.9874200000000001				
682	0.9876				
683	0.9873999999999999				
684	0.9868300000000001				
685	0.98661				
686	0.98602				
687	0.98628				
688	0.98586				
689	0.98588				
690	0.9848699999999999				
691	0.98501				
692	0.98465				
693	0.9843000000000001				
694	0.98497				
695	0.9854				
696	0.98454				
697	0.98488				
698	0.98507				
699	0.98433				
700	0.98384				
701	0.98297				
702	0.98246				
703	0.98253				
704	0.98257				
705	0.9822				
706	0.98232				
707	0.98167				
708	0.98066				
709	0.97933				
710	0.9802500000000001				
711	0.97929				
712	0.9793600000000001				
713	0.98006				
714	0.97976				
715	0.98089				
716	0.9814400000000001				
717	0.9817199999999999				
718	0.98178				
719	0.98111				
720	0.9810099999999999				
721	0.97956				
722	0.97898				
723	0.97661				
724	0.97359				
725	0.9702299999999999				
726	0.96615				
727	0.9614100000000001				
728	0.9575499999999999				
729	0.95325				
730	0.9489				
731	0.94568				
732	0.94163				
733	0.9389700000000001				
734	0.93711				
735	0.93607				
736	0.93621				
737	0.9356300000000001				
738	0.93793				
739	0.93979				
740	0.941				
741	0.94211				
742	0.94378				
743	0.94351				
744	0.94108				
745	0.93659				
746	0.9296500000000001				
747	0.92009				
748	0.90771				
749	0.8932899999999999				
750	0.87581				
